Parameter file for particulate polydispersions (96.3.13 updated)
  0.01E-4  30.0E-4 : Rmin, Rmax [cm]
Refractive index table for fundamental materials
    9  201 : NV(number of fundmental spcesi) NWL(number of wavelength bin)
  2.000E-01  2.070E-01  2.143E-01  2.218E-01  2.296E-01  2.377E-01  2.461E-01
  2.547E-01  2.637E-01  2.729E-01  2.825E-01  2.924E-01  3.027E-01  3.134E-01
  3.244E-01  3.358E-01  3.476E-01  3.598E-01  3.724E-01  3.855E-01  3.991E-01
  4.131E-01  4.276E-01  4.426E-01  4.582E-01  4.743E-01  4.909E-01  5.082E-01
  5.261E-01  5.445E-01  5.637E-01  5.835E-01  6.040E-01  6.252E-01  6.472E-01
  6.699E-01  6.935E-01  7.178E-01  7.431E-01  7.692E-01  7.962E-01  8.242E-01
  8.532E-01  8.831E-01  9.142E-01  9.463E-01  9.796E-01  1.014E+00  1.050E+00
  1.087E+00  1.125E+00  1.164E+00  1.205E+00  1.247E+00  1.291E+00  1.337E+00
  1.384E+00  1.432E+00  1.483E+00  1.535E+00  1.589E+00  1.644E+00  1.702E+00
  1.762E+00  1.824E+00  1.888E+00  1.954E+00  2.023E+00  2.094E+00  2.168E+00
  2.244E+00  2.323E+00  2.405E+00  2.489E+00  2.576E+00  2.667E+00  2.761E+00
  2.858E+00  2.958E+00  3.062E+00  3.170E+00  3.281E+00  3.396E+00  3.516E+00
  3.639E+00  3.767E+00  3.900E+00  4.037E+00  4.179E+00  4.325E+00  4.477E+00
  4.635E+00  4.798E+00  4.966E+00  5.141E+00  5.321E+00  5.508E+00  5.702E+00
  5.902E+00  6.110E+00  6.325E+00  6.547E+00  6.777E+00  7.015E+00  7.262E+00
  7.517E+00  7.781E+00  8.054E+00  8.337E+00  8.630E+00  8.934E+00  9.248E+00
  9.573E+00  9.909E+00  1.026E+01  1.062E+01  1.099E+01  1.138E+01  1.178E+01
  1.219E+01  1.262E+01  1.306E+01  1.352E+01  1.400E+01  1.449E+01  1.500E+01
  1.552E+01  1.607E+01  1.664E+01  1.722E+01  1.783E+01  1.845E+01  1.910E+01
  1.977E+01  2.047E+01  2.119E+01  2.193E+01  2.270E+01  2.350E+01  2.432E+01
  2.518E+01  2.606E+01  2.698E+01  2.793E+01  2.891E+01  2.992E+01  3.098E+01
  3.206E+01  3.319E+01  3.436E+01  3.557E+01  3.682E+01  3.811E+01  3.945E+01
  4.083E+01  4.227E+01  4.376E+01  4.529E+01  4.688E+01  4.853E+01  5.024E+01
  5.200E+01  5.383E+01  5.572E+01  5.768E+01  5.971E+01  6.181E+01  6.398E+01
  6.623E+01  6.855E+01  7.096E+01  7.346E+01  7.604E+01  7.871E+01  8.148E+01
  8.434E+01  8.730E+01  9.037E+01  9.355E+01  9.683E+01  1.002E+02  1.038E+02
  1.074E+02  1.112E+02  1.151E+02  1.191E+02  1.233E+02  1.277E+02  1.321E+02
  1.368E+02  1.416E+02  1.466E+02  1.517E+02  1.570E+02  1.626E+02  1.683E+02
  1.742E+02  1.803E+02  1.867E+02  1.932E+02  2.000E+02
M1 (water)           
      1.396      1.388      1.381      1.375      1.370      1.366      1.363
      1.360      1.357      1.355      1.352      1.350      1.349      1.347
      1.346      1.345      1.343      1.342      1.341      1.340      1.339
      1.338      1.338      1.337      1.337      1.336      1.335      1.335
      1.334      1.333      1.333      1.333      1.332      1.332      1.331
      1.331      1.331      1.330      1.330      1.330      1.329      1.329
      1.329      1.328      1.328      1.327      1.327      1.327      1.327
      1.326      1.325      1.325      1.324      1.323      1.323      1.322
      1.321      1.320      1.320      1.318      1.317      1.316      1.315
      1.313      1.311      1.310      1.308      1.305      1.302      1.298
      1.293      1.286      1.279      1.270      1.250      1.209      1.152
      1.154      1.307      1.437      1.483      1.457      1.421      1.397
      1.380      1.367      1.357      1.349      1.343      1.337      1.332
      1.330      1.330      1.326      1.320      1.311      1.297      1.277
      1.248      1.324      1.353      1.336      1.325      1.316      1.310
      1.303      1.297      1.290      1.283      1.274      1.264      1.253
      1.240      1.223      1.202      1.177      1.154      1.132      1.115
      1.113      1.128      1.150      1.178      1.210      1.240      1.270
      1.298      1.329      1.358      1.387      1.416      1.441      1.464
      1.479      1.482      1.489      1.499      1.508      1.516      1.524
      1.533      1.539      1.545      1.549      1.551      1.551      1.549
      1.546      1.540      1.534      1.529      1.525      1.522      1.519
      1.519      1.523      1.529      1.537      1.546      1.561      1.591
      1.617      1.638      1.658      1.678      1.700      1.725      1.752
      1.780      1.806      1.830      1.850      1.866      1.880      1.892
      1.903      1.914      1.925      1.938      1.950      1.958      1.960
      1.962      1.969      1.984      2.001      2.016      2.030      2.041
      2.051      2.058      2.065      2.071      2.077      2.084      2.092
      2.100      2.107      2.115      2.125      2.130
  1.100E-07  8.430E-08  6.570E-08  5.290E-08  4.460E-08  3.930E-08  3.520E-08
  3.150E-08  2.780E-08  2.430E-08  2.090E-08  1.800E-08  1.540E-08  1.310E-08
  1.090E-08  8.810E-09  6.870E-09  5.170E-09  3.750E-09  2.630E-09  1.900E-09
  1.500E-09  1.260E-09  1.080E-09  9.740E-10  9.350E-10  9.540E-10  1.070E-09
  1.340E-09  1.790E-09  2.530E-09  5.330E-09  1.200E-08  1.390E-08  1.590E-08
  2.100E-08  2.840E-08  6.870E-08  1.440E-07  1.550E-07  1.240E-07  1.790E-07
  3.080E-07  4.100E-07  7.000E-07  2.630E-06  3.390E-06  2.650E-06  2.480E-06
  2.810E-06  3.780E-06  5.940E-06  1.070E-05  2.130E-05  4.300E-05  8.000E-05
  1.250E-04  1.520E-04  1.440E-04  1.180E-04  9.030E-05  7.130E-05  6.580E-05
  8.170E-05  1.560E-04  4.070E-04  9.030E-04  1.050E-03  6.050E-04  3.250E-04
  3.110E-04  5.340E-04  9.810E-04  1.410E-03  2.460E-03  9.260E-03  7.080E-02
  1.980E-01  2.960E-01  2.300E-01  1.160E-01  4.450E-02  1.990E-02  8.490E-03
  4.310E-03  3.380E-03  3.800E-03  4.950E-03  6.580E-03  8.850E-03  1.270E-02
  1.510E-02  1.500E-02  1.280E-02  1.060E-02  9.840E-03  1.170E-02  2.050E-02
  6.310E-02  1.220E-01  5.250E-02  3.730E-02  3.290E-02  3.200E-02  3.220E-02
  3.260E-02  3.340E-02  3.450E-02  3.580E-02  3.740E-02  3.940E-02  4.190E-02
  4.510E-02  4.930E-02  5.700E-02  7.200E-02  9.610E-02  1.300E-01  1.720E-01
  2.220E-01  2.720E-01  3.100E-01  3.440E-01  3.700E-01  3.880E-01  4.020E-01
  4.140E-01  4.230E-01  4.280E-01  4.290E-01  4.270E-01  4.220E-01  4.120E-01
  3.970E-01  3.860E-01  3.800E-01  3.740E-01  3.690E-01  3.640E-01  3.590E-01
  3.550E-01  3.500E-01  3.440E-01  3.380E-01  3.340E-01  3.280E-01  3.250E-01
  3.240E-01  3.260E-01  3.310E-01  3.400E-01  3.500E-01  3.620E-01  3.780E-01
  3.950E-01  4.130E-01  4.330E-01  4.530E-01  4.730E-01  4.950E-01  5.170E-01
  5.370E-01  5.540E-01  5.680E-01  5.790E-01  5.860E-01  5.890E-01  5.890E-01
  5.860E-01  5.800E-01  5.730E-01  5.650E-01  5.570E-01  5.500E-01  5.440E-01
  5.400E-01  5.380E-01  5.360E-01  5.340E-01  5.330E-01  5.320E-01  5.320E-01
  5.310E-01  5.310E-01  5.290E-01  5.270E-01  5.230E-01  5.170E-01  5.110E-01
  5.040E-01  4.990E-01  4.960E-01  4.950E-01  4.960E-01  4.960E-01  4.970E-01
  4.980E-01  4.990E-01  5.000E-01  5.020E-01  5.040E-01
M2 (ice)             
      1.393      1.384      1.375      1.368      1.362      1.357      1.353
      1.349      1.345      1.342      1.339      1.336      1.333      1.331
      1.329      1.327      1.325      1.324      1.322      1.321      1.319
      1.318      1.317      1.316      1.315      1.314      1.313      1.313
      1.312      1.311      1.310      1.310      1.309      1.309      1.308
      1.308      1.307      1.307      1.306      1.306      1.305      1.304
      1.304      1.303      1.303      1.302      1.302      1.301      1.301
      1.300      1.299      1.299      1.298      1.297      1.296      1.295
      1.294      1.293      1.292      1.291      1.290      1.288      1.286
      1.284      1.282      1.279      1.276      1.273      1.270      1.265
      1.258      1.250      1.241      1.228      1.209      1.178      1.122
      1.013       .999      1.233      1.628      1.590      1.507      1.449
      1.412      1.388      1.371      1.359      1.349      1.340      1.339
      1.348      1.340      1.331      1.321      1.311      1.300      1.290
      1.290      1.307      1.321      1.319      1.318      1.319      1.319
      1.316      1.316      1.312      1.299      1.286      1.274      1.261
      1.242      1.211      1.164      1.104      1.093      1.152      1.232
      1.321      1.409      1.482      1.534      1.569      1.582      1.572
      1.554      1.540      1.532      1.533      1.525      1.510      1.497
      1.501      1.497      1.483      1.467      1.450      1.434      1.419
      1.404      1.388      1.374      1.359      1.344      1.328      1.311
      1.291      1.267      1.239      1.218      1.204      1.197      1.199
      1.207      1.216      1.247      1.309      1.513      1.615      1.633
      1.677      1.731      1.776      1.668      1.589      1.636      1.710
      1.787      1.849      1.878      1.893      1.903      1.906      1.897
      1.879      1.865      1.855      1.846      1.839      1.832      1.827
      1.823      1.821      1.820      1.819      1.819      1.819      1.819
      1.819      1.820      1.821      1.823      1.826      1.828      1.830
      1.830      1.830      1.830      1.830      1.830
  1.490E-08  1.370E-08  1.260E-08  1.160E-08  1.060E-08  9.760E-09  8.970E-09
  8.240E-09  7.570E-09  6.950E-09  6.390E-09  5.860E-09  5.380E-09  4.940E-09
  4.530E-09  4.160E-09  3.830E-09  3.530E-09  3.250E-09  2.980E-09  2.730E-09
  2.430E-09  2.110E-09  1.810E-09  1.520E-09  1.580E-09  1.790E-09  2.100E-09
  2.400E-09  3.060E-09  3.350E-09  4.340E-09  6.150E-09  9.540E-09  1.370E-08
  1.890E-08  2.560E-08  3.930E-08  5.180E-08  8.450E-08  1.290E-07  1.440E-07
  1.930E-07  3.560E-07  4.560E-07  5.760E-07  1.110E-06  2.120E-06  2.180E-06
  1.740E-06  1.900E-06  3.390E-06  7.630E-06  1.280E-05  1.320E-05  1.330E-05
  1.630E-05  1.220E-04  5.310E-04  5.350E-04  3.680E-04  2.540E-04  1.640E-04
  1.270E-04  8.870E-05  2.780E-04  1.200E-03  1.530E-03  9.600E-04  3.570E-04
  1.990E-04  4.350E-04  7.170E-04  9.140E-04  8.840E-04  2.990E-03  1.500E-02
  8.080E-02  3.280E-01  6.170E-01  3.900E-01  1.170E-01  4.010E-02  1.450E-02
  7.720E-03  6.660E-03  7.790E-03  1.020E-02  1.270E-02  1.850E-02  2.790E-02
  2.290E-02  1.470E-02  1.220E-02  1.290E-02  1.510E-02  2.170E-02  3.400E-02
  5.930E-02  6.980E-02  6.280E-02  5.540E-02  5.800E-02  5.530E-02  5.380E-02
  5.200E-02  5.070E-02  4.330E-02  3.650E-02  3.970E-02  4.200E-02  4.490E-02
  4.610E-02  4.840E-02  6.990E-02  1.300E-01  2.380E-01  3.420E-01  3.970E-01
  4.220E-01  4.170E-01  3.820E-01  3.340E-01  2.820E-01  2.220E-01  1.740E-01
  1.460E-01  1.290E-01  1.210E-01  1.080E-01  8.820E-02  7.420E-02  7.550E-02
  7.240E-02  5.350E-02  3.890E-02  3.080E-02  2.730E-02  2.720E-02  2.830E-02
  3.060E-02  3.430E-02  4.000E-02  4.740E-02  5.600E-02  6.530E-02  7.530E-02
  8.680E-02  1.030E-01  1.310E-01  1.730E-01  2.160E-01  2.680E-01  3.220E-01
  3.790E-01  4.340E-01  5.240E-01  6.320E-01  7.120E-01  5.690E-01  5.440E-01
  5.190E-01  4.520E-01  3.950E-01  3.130E-01  3.990E-01  5.190E-01  5.000E-01
  4.860E-01  4.320E-01  3.800E-01  3.360E-01  2.980E-01  2.550E-01  2.160E-01
  1.880E-01  1.750E-01  1.640E-01  1.540E-01  1.450E-01  1.390E-01  1.340E-01
  1.300E-01  1.270E-01  1.240E-01  1.210E-01  1.170E-01  1.140E-01  1.100E-01
  1.060E-01  1.020E-01  9.860E-02  9.510E-02  9.140E-02  8.710E-02  8.300E-02
  8.300E-02  8.300E-02  8.300E-02  8.300E-02  8.300E-02
M3 (dust-like)       
      1.530      1.530      1.530      1.530      1.530      1.530      1.530
      1.530      1.530      1.530      1.530      1.530      1.530      1.530
      1.530      1.530      1.530      1.530      1.530      1.530      1.530
      1.530      1.530      1.530      1.530      1.530      1.530      1.530
      1.530      1.530      1.530      1.530      1.530      1.530      1.530
      1.530      1.530      1.529      1.527      1.525      1.522      1.521
      1.520      1.520      1.522      1.523      1.524      1.524      1.521
      1.516      1.508      1.499      1.487      1.475      1.462      1.450
      1.437      1.425      1.412      1.400      1.388      1.375      1.361
      1.343      1.321      1.297      1.273      1.255      1.242      1.232
      1.221      1.206      1.190      1.181      1.180      1.182      1.173
      1.159      1.155      1.175      1.211      1.239      1.261      1.282
      1.280      1.269      1.262      1.260      1.260      1.260      1.260
      1.258      1.255      1.251      1.246      1.238      1.219      1.188
      1.159      1.146      1.127      1.142      1.244      1.360      1.397
      1.321      1.198      1.113      1.200      1.360      1.655      1.719
      1.732      1.748      1.701      1.617      1.620      1.600      1.568
      1.537      1.498      1.468      1.481      1.520      1.559      1.572
      1.574      1.588      1.609      1.630      1.639      1.640      1.648
      1.670      1.704      1.759      1.839      1.916      1.958      1.972
      1.968      1.953      1.927      1.889      1.841      1.802      1.790
      1.804      1.836      1.877      1.920      1.963      2.012      2.072
      2.100      2.100      2.100      2.100      2.100      2.100      2.100
      2.100      2.100      2.100      2.100      2.100      2.100      2.100
      2.100      2.100      2.100      2.100      2.100      2.100      2.100
      2.100      2.100      2.100      2.100      2.100      2.100      2.100
      2.100      2.100      2.100      2.100      2.100      2.100      2.100
      2.100      2.100      2.100      2.100      2.100      2.100      2.100
      2.100      2.100      2.100      2.100      2.100
  7.000E-02  6.500E-02  5.990E-02  5.430E-02  4.790E-02  4.090E-02  3.350E-02
  2.600E-02  1.950E-02  1.450E-02  1.110E-02  8.910E-03  7.810E-03  7.510E-03
  7.660E-03  7.970E-03  8.180E-03  8.230E-03  8.190E-03  8.100E-03  8.010E-03
  7.950E-03  7.930E-03  7.940E-03  7.960E-03  7.990E-03  8.000E-03  8.000E-03
  8.000E-03  8.000E-03  8.000E-03  8.000E-03  8.000E-03  8.000E-03  8.000E-03
  8.000E-03  8.000E-03  8.000E-03  8.000E-03  8.000E-03  8.000E-03  8.000E-03
  8.000E-03  8.000E-03  8.000E-03  8.000E-03  8.000E-03  8.000E-03  8.000E-03
  8.000E-03  8.000E-03  8.010E-03  8.010E-03  8.000E-03  8.000E-03  7.990E-03
  7.990E-03  7.980E-03  7.990E-03  8.000E-03  8.020E-03  8.050E-03  8.060E-03
  8.040E-03  7.970E-03  7.890E-03  7.900E-03  8.090E-03  8.480E-03  8.860E-03
  9.010E-03  8.770E-03  8.550E-03  8.890E-03  1.030E-02  1.230E-02  1.380E-02
  1.390E-02  1.270E-02  1.080E-02  9.840E-03  1.150E-02  1.300E-02  1.080E-02
  1.040E-02  1.110E-02  1.170E-02  1.210E-02  1.270E-02  1.330E-02  1.390E-02
  1.450E-02  1.520E-02  1.590E-02  1.660E-02  1.810E-02  2.120E-02  2.710E-02
  3.430E-02  3.850E-02  3.960E-02  4.320E-02  5.110E-02  5.750E-02  5.240E-02
  3.940E-02  3.560E-02  5.490E-02  8.470E-02  9.430E-02  1.310E-01  1.520E-01
  1.630E-01  1.630E-01  1.470E-01  1.180E-01  1.050E-01  1.010E-01  9.510E-02
  8.890E-02  9.250E-02  1.000E-01  9.140E-02  8.490E-02  9.470E-02  1.000E-01
  1.000E-01  1.010E-01  9.910E-02  9.990E-02  1.120E-01  1.190E-01  1.470E-01
  2.010E-01  2.520E-01  2.780E-01  2.850E-01  2.770E-01  2.590E-01  2.440E-01
  2.410E-01  2.540E-01  2.810E-01  3.210E-01  3.690E-01  4.170E-01  4.540E-01
  4.780E-01  4.910E-01  4.980E-01  5.020E-01  5.100E-01  5.310E-01  5.730E-01
  6.000E-01  6.000E-01  6.000E-01  6.000E-01  6.000E-01  6.000E-01  6.000E-01
  6.000E-01  6.000E-01  6.000E-01  6.000E-01  6.000E-01  6.000E-01  6.000E-01
  6.000E-01  6.000E-01  6.000E-01  6.000E-01  6.000E-01  6.000E-01  6.000E-01
  6.000E-01  6.000E-01  6.000E-01  6.000E-01  6.000E-01  6.000E-01  6.000E-01
  6.000E-01  6.000E-01  6.000E-01  6.000E-01  6.000E-01  6.000E-01  6.000E-01
  6.000E-01  6.000E-01  6.000E-01  6.000E-01  6.000E-01  6.000E-01  6.000E-01
  6.000E-01  6.000E-01  6.000E-01  6.000E-01  6.000E-01
M4 (water-soluble)   
      1.530      1.530      1.530      1.530      1.530      1.530      1.530
      1.530      1.530      1.530      1.530      1.530      1.530      1.530
      1.530      1.530      1.530      1.530      1.530      1.530      1.530
      1.530      1.530      1.530      1.530      1.530      1.530      1.530
      1.530      1.530      1.530      1.530      1.530      1.530      1.530
      1.530      1.530      1.529      1.527      1.525      1.523      1.521
      1.520      1.520      1.520      1.520      1.521      1.521      1.520
      1.519      1.517      1.514      1.512      1.511      1.510      1.511
      1.512      1.513      1.513      1.510      1.504      1.495      1.483
      1.469      1.454      1.439      1.426      1.418      1.415      1.416
      1.420      1.423      1.424      1.421      1.412      1.402      1.400
      1.406      1.416      1.426      1.430      1.426      1.431      1.452
      1.456      1.452      1.452      1.456      1.459      1.461      1.460
      1.457      1.453      1.450      1.450      1.448      1.439      1.421
      1.409      1.419      1.445      1.461      1.454      1.428      1.390
      1.339      1.254      1.112       .957      2.100      2.658      2.130
      1.927      1.842      1.783      1.758      1.721      1.681      1.648
      1.627      1.620      1.620      1.604      1.560      1.486      1.417
      1.453      1.607      1.868      2.082      2.028      1.860      1.904
      2.079      2.135      2.070      2.022      1.991      1.951      1.908
      1.874      1.856      1.848      1.840      1.828      1.820      1.825
      1.842      1.869      1.901      1.936      1.962      1.958      1.902
      1.860      1.860      1.860      1.860      1.860      1.860      1.860
      1.860      1.860      1.860      1.860      1.860      1.860      1.860
      1.860      1.860      1.860      1.860      1.860      1.860      1.860
      1.860      1.860      1.860      1.860      1.860      1.860      1.860
      1.860      1.860      1.860      1.860      1.860      1.860      1.860
      1.860      1.860      1.860      1.860      1.860      1.860      1.860
      1.860      1.860      1.860      1.860      1.860
  7.000E-02  6.400E-02  5.820E-02  5.230E-02  4.610E-02  3.960E-02  3.300E-02
  2.650E-02  2.070E-02  1.590E-02  1.220E-02  9.450E-03  7.580E-03  6.340E-03
  5.530E-03  5.040E-03  4.790E-03  4.720E-03  4.760E-03  4.870E-03  4.990E-03
  5.090E-03  5.150E-03  5.170E-03  5.150E-03  5.080E-03  4.980E-03  4.930E-03
  5.250E-03  5.850E-03  6.220E-03  6.240E-03  6.100E-03  5.990E-03  6.100E-03
  6.460E-03  6.990E-03  7.610E-03  8.320E-03  9.110E-03  9.960E-03  1.090E-02
  1.180E-02  1.270E-02  1.360E-02  1.450E-02  1.530E-02  1.610E-02  1.680E-02
  1.740E-02  1.800E-02  1.850E-02  1.890E-02  1.940E-02  1.990E-02  2.050E-02
  2.110E-02  2.170E-02  2.240E-02  2.300E-02  2.350E-02  2.340E-02  2.210E-02
  1.930E-02  1.540E-02  1.140E-02  8.810E-03  7.880E-03  8.360E-03  9.430E-03
  1.000E-02  9.300E-03  8.920E-03  1.130E-02  2.200E-02  4.600E-02  6.240E-02
  5.000E-02  2.880E-02  1.470E-02  8.670E-03  7.540E-03  6.940E-03  4.790E-03
  4.010E-03  4.020E-03  4.380E-03  5.340E-03  7.310E-03  1.010E-02  1.280E-02
  1.340E-02  1.250E-02  1.200E-02  1.290E-02  1.540E-02  1.810E-02  1.990E-02
  2.170E-02  2.510E-02  2.920E-02  3.460E-02  4.650E-02  6.220E-02  7.050E-02
  6.570E-02  6.220E-02  7.620E-02  1.420E-01  2.680E-01  3.450E-01  3.890E-01
  1.310E-01  9.120E-02  8.460E-02  6.840E-02  5.020E-02  4.650E-02  4.890E-02
  5.200E-02  5.290E-02  5.580E-02  7.040E-02  7.260E-02  6.050E-02  1.640E-01
  3.520E-01  2.020E-01  1.710E-01  2.370E-01  1.920E-01  1.700E-01  1.850E-01
  2.120E-01  2.280E-01  2.300E-01  2.340E-01  2.430E-01  2.560E-01  2.710E-01
  2.820E-01  2.870E-01  2.890E-01  2.900E-01  2.930E-01  2.990E-01  3.120E-01
  3.300E-01  3.540E-01  3.830E-01  4.150E-01  4.490E-01  4.780E-01  4.970E-01
  5.000E-01  5.000E-01  5.000E-01  5.000E-01  5.000E-01  5.000E-01  5.000E-01
  5.000E-01  5.000E-01  5.000E-01  5.000E-01  5.000E-01  5.000E-01  5.000E-01
  5.000E-01  5.000E-01  5.000E-01  5.000E-01  5.000E-01  5.000E-01  5.000E-01
  5.000E-01  5.000E-01  5.000E-01  5.000E-01  5.000E-01  5.000E-01  5.000E-01
  5.000E-01  5.000E-01  5.000E-01  5.000E-01  5.000E-01  5.000E-01  5.000E-01
  5.000E-01  5.000E-01  5.000E-01  5.000E-01  5.000E-01  5.000E-01  5.000E-01
  5.000E-01  5.000E-01  5.000E-01  5.000E-01  5.000E-01
M5 (Sea Salt)         
      1.510      1.510      1.510      1.510      1.510      1.510      1.510
      1.510      1.510      1.510      1.510      1.510      1.510      1.510
      1.511      1.510      1.509      1.507      1.504      1.502      1.500
      1.499      1.499      1.499      1.499      1.500      1.500      1.500
      1.500      1.500      1.499      1.496      1.493      1.491      1.490
      1.490      1.490      1.490      1.489      1.487      1.485      1.483
      1.481      1.478      1.476      1.474      1.472      1.471      1.470
      1.470      1.470      1.470      1.470      1.471      1.470      1.469
      1.468      1.465      1.463      1.460      1.457      1.454      1.452
      1.450      1.450      1.451      1.451      1.449      1.444      1.440
      1.440      1.444      1.446      1.433      1.402      1.390      1.443
      1.538      1.606      1.584      1.506      1.473      1.480      1.479
      1.473      1.470      1.474      1.482      1.488      1.492      1.491
      1.484      1.476      1.470      1.471      1.461      1.417      1.343
      1.345      1.529      1.583      1.433      1.380      1.399      1.423
      1.415      1.400      1.409      1.432      1.559      1.655      1.602
      1.576      1.549      1.520      1.498      1.480      1.481      1.468
      1.439      1.416      1.410      1.410      1.410      1.412      1.450
      1.478      1.512      1.613      1.743      1.781      1.771      1.762
      1.760      1.760      1.760      1.760      1.760      1.760      1.760
      1.760      1.760      1.760      1.760      1.760      1.760      1.760
      1.760      1.760      1.760      1.760      1.760      1.760      1.760
      1.760      1.760      1.760      1.760      1.760      1.760      1.760
      1.760      1.760      1.760      1.760      1.760      1.760      1.760
      1.760      1.760      1.760      1.760      1.760      1.760      1.760
      1.760      1.760      1.760      1.760      1.760      1.760      1.760
      1.760      1.760      1.760      1.760      1.760      1.760      1.760
      1.760      1.760      1.760      1.760      1.760      1.760      1.760
      1.760      1.760      1.760      1.760      1.760
  1.000E-04  7.203E-05  5.086E-05  3.450E-05  2.205E-05  1.301E-05  6.943E-06
  3.298E-06  1.458E-06  6.623E-07  3.424E-07  2.230E-07  2.023E-07  2.525E-07
  3.450E-07  4.015E-07  3.247E-07  1.940E-07  9.967E-08  5.129E-08  3.078E-08
  2.420E-08  2.352E-08  2.525E-08  2.679E-08  2.510E-08  1.858E-08  1.149E-08
  9.105E-09  9.677E-09  1.065E-08  1.155E-08  1.325E-08  1.734E-08  2.764E-08
  5.134E-08  9.863E-08  1.778E-07  3.018E-07  4.981E-07  8.243E-07  1.411E-06
  2.577E-06  5.153E-06  1.102E-05  2.403E-05  5.101E-05  1.006E-04  1.756E-04
  2.605E-04  3.313E-04  3.751E-04  3.930E-04  3.959E-04  3.983E-04  4.140E-04
  4.454E-04  4.894E-04  5.425E-04  5.987E-04  6.511E-04  6.979E-04  7.397E-04
  7.778E-04  8.138E-04  8.565E-04  9.258E-04  1.049E-03  1.255E-03  1.557E-03
  1.964E-03  2.478E-03  3.113E-03  3.890E-03  4.857E-03  6.280E-03  8.702E-03
  1.146E-02  1.142E-02  7.067E-03  3.495E-03  2.365E-03  1.984E-03  1.559E-03
  1.408E-03  1.402E-03  1.411E-03  1.390E-03  1.341E-03  1.317E-03  1.380E-03
  1.593E-03  1.958E-03  2.412E-03  2.826E-03  3.191E-03  3.623E-03  4.471E-03
  7.350E-03  1.844E-02  1.432E-02  4.102E-03  3.131E-03  4.729E-03  7.703E-03
  9.686E-03  1.149E-02  1.628E-02  2.287E-02  2.896E-02  2.866E-02  2.482E-02
  1.707E-02  1.547E-02  1.423E-02  1.400E-02  1.400E-02  1.396E-02  1.426E-02
  1.508E-02  1.642E-02  1.830E-02  2.065E-02  2.299E-02  2.567E-02  3.494E-02
  5.255E-02  7.546E-02  9.980E-02  1.206E-01  1.346E-01  1.351E-01  1.389E-01
  1.487E-01  1.572E-01  1.638E-01  1.729E-01  1.821E-01  1.886E-01  1.957E-01
  2.083E-01  2.290E-01  2.538E-01  2.755E-01  2.880E-01  2.989E-01  3.190E-01
  3.513E-01  3.975E-01  4.594E-01  5.398E-01  6.418E-01  7.695E-01  9.272E-01
  1.000E+00  1.000E+00  1.000E+00  1.000E+00  1.000E+00  1.000E+00  1.000E+00
  1.000E+00  1.000E+00  1.000E+00  1.000E+00  1.000E+00  1.000E+00  1.000E+00
  1.000E+00  1.000E+00  1.000E+00  1.000E+00  1.000E+00  1.000E+00  1.000E+00
  1.000E+00  1.000E+00  1.000E+00  1.000E+00  1.000E+00  1.000E+00  1.000E+00
  1.000E+00  1.000E+00  1.000E+00  1.000E+00  1.000E+00  1.000E+00  1.000E+00
  1.000E+00  1.000E+00  1.000E+00  1.000E+00  1.000E+00  1.000E+00  1.000E+00
  1.000E+00  1.000E+00  1.000E+00  1.000E+00  1.000E+00
M6 (soot)            
      1.500      1.516      1.532      1.549      1.567      1.587      1.609
      1.634      1.660      1.686      1.710      1.730      1.743      1.749
      1.751      1.750      1.749      1.749      1.749      1.750      1.750
      1.750      1.750      1.750      1.750      1.750      1.750      1.750
      1.750      1.750      1.750      1.750      1.750      1.750      1.750
      1.750      1.750      1.750      1.750      1.750      1.750      1.750
      1.750      1.750      1.749      1.749      1.749      1.749      1.750
      1.751      1.752      1.754      1.756      1.758      1.760      1.761
      1.763      1.765      1.767      1.770      1.774      1.778      1.783
      1.787      1.791      1.795      1.798      1.801      1.804      1.807
      1.810      1.813      1.816      1.819      1.824      1.829      1.831
      1.833      1.837      1.846      1.858      1.864      1.870      1.881
      1.891      1.901      1.913      1.922      1.928      1.933      1.939
      1.948      1.958      1.968      1.976      1.982      1.990      2.002
      2.014      2.026      2.035      2.041      2.044      2.050      2.065
      2.090      2.113      2.125      2.139      2.157      2.168      2.182
      2.192      2.206      2.216      2.220      2.230      2.237      2.248
      2.261      2.273      2.281      2.294      2.310      2.325      2.330
      2.337      2.351      2.366      2.380      2.396      2.408      2.427
      2.446      2.455      2.459      2.470      2.483      2.495      2.504
      2.512      2.520      2.529      2.540      2.554      2.569      2.583
      2.596      2.609      2.623      2.637      2.652      2.667      2.683
      2.690      2.690      2.690      2.690      2.690      2.690      2.690
      2.690      2.690      2.690      2.690      2.690      2.690      2.690
      2.690      2.690      2.690      2.690      2.690      2.690      2.690
      2.690      2.690      2.690      2.690      2.690      2.690      2.690
      2.690      2.690      2.690      2.690      2.690      2.690      2.690
      2.690      2.690      2.690      2.690      2.690      2.690      2.690
      2.690      2.690      2.690      2.690      2.690
  3.500E-01  3.670E-01  3.840E-01  4.010E-01  4.170E-01  4.320E-01  4.450E-01
  4.550E-01  4.620E-01  4.660E-01  4.680E-01  4.700E-01  4.700E-01  4.700E-01
  4.710E-01  4.700E-01  4.690E-01  4.670E-01  4.650E-01  4.630E-01  4.600E-01
  4.570E-01  4.550E-01  4.520E-01  4.510E-01  4.500E-01  4.500E-01  4.510E-01
  4.480E-01  4.420E-01  4.370E-01  4.330E-01  4.310E-01  4.300E-01  4.300E-01
  4.300E-01  4.300E-01  4.300E-01  4.300E-01  4.290E-01  4.290E-01  4.290E-01
  4.300E-01  4.310E-01  4.320E-01  4.340E-01  4.350E-01  4.370E-01  4.390E-01
  4.410E-01  4.430E-01  4.450E-01  4.470E-01  4.480E-01  4.500E-01  4.510E-01
  4.530E-01  4.550E-01  4.570E-01  4.600E-01  4.640E-01  4.680E-01  4.730E-01
  4.770E-01  4.810E-01  4.850E-01  4.880E-01  4.910E-01  4.940E-01  4.970E-01
  5.000E-01  5.030E-01  5.060E-01  5.100E-01  5.130E-01  5.180E-01  5.250E-01
  5.330E-01  5.390E-01  5.400E-01  5.400E-01  5.420E-01  5.500E-01  5.610E-01
  5.670E-01  5.710E-01  5.760E-01  5.810E-01  5.850E-01  5.870E-01  5.900E-01
  5.920E-01  5.960E-01  5.990E-01  6.030E-01  6.070E-01  6.100E-01  6.140E-01
  6.180E-01  6.230E-01  6.270E-01  6.310E-01  6.370E-01  6.440E-01  6.520E-01
  6.590E-01  6.670E-01  6.750E-01  6.860E-01  6.900E-01  6.990E-01  7.010E-01
  7.120E-01  7.170E-01  7.260E-01  7.300E-01  7.300E-01  7.370E-01  7.440E-01
  7.470E-01  7.520E-01  7.610E-01  7.670E-01  7.750E-01  7.860E-01  7.900E-01
  7.940E-01  8.040E-01  8.140E-01  8.200E-01  8.240E-01  8.290E-01  8.380E-01
  8.470E-01  8.540E-01  8.590E-01  8.650E-01  8.720E-01  8.790E-01  8.850E-01
  8.910E-01  8.970E-01  9.030E-01  9.100E-01  9.190E-01  9.290E-01  9.390E-01
  9.480E-01  9.560E-01  9.650E-01  9.740E-01  9.840E-01  9.920E-01  9.990E-01
  1.000E+00  1.000E+00  1.000E+00  1.000E+00  1.000E+00  1.000E+00  1.000E+00
  1.000E+00  1.000E+00  1.000E+00  1.000E+00  1.000E+00  1.000E+00  1.000E+00
  1.000E+00  1.000E+00  1.000E+00  1.000E+00  1.000E+00  1.000E+00  1.000E+00
  1.000E+00  1.000E+00  1.000E+00  1.000E+00  1.000E+00  1.000E+00  1.000E+00
  1.000E+00  1.000E+00  1.000E+00  1.000E+00  1.000E+00  1.000E+00  1.000E+00
  1.000E+00  1.000E+00  1.000E+00  1.000E+00  1.000E+00  1.000E+00  1.000E+00
  1.000E+00  1.000E+00  1.000E+00  1.000E+00  1.000E+00
M7 (volcanic-ash)    
      1.500      1.500      1.500      1.500      1.500      1.500      1.500
      1.500      1.500      1.500      1.500      1.500      1.500      1.500
      1.500      1.500      1.500      1.500      1.500      1.500      1.500
      1.500      1.500      1.500      1.500      1.500      1.500      1.500
      1.500      1.500      1.500      1.500      1.500      1.500      1.500
      1.500      1.500      1.500      1.500      1.500      1.500      1.500
      1.500      1.500      1.500      1.500      1.500      1.500      1.500
      1.500      1.501      1.501      1.501      1.501      1.500      1.499
      1.496      1.494      1.492      1.490      1.489      1.488      1.486
      1.483      1.478      1.470      1.463      1.459      1.458      1.458
      1.460      1.461      1.461      1.460      1.459      1.459      1.464
      1.472      1.479      1.480      1.479      1.484      1.490      1.490
      1.495      1.500      1.500      1.501      1.507      1.514      1.520
      1.519      1.515      1.510      1.510      1.511      1.510      1.503
      1.489      1.468      1.454      1.449      1.444      1.440      1.441
      1.438      1.409      1.335      1.421      1.842      2.170      2.233
      2.256      2.293      2.273      2.195      2.150      2.080      1.973
      1.860      1.785      1.757      1.732      1.700      1.663      1.650
      1.672      1.717      1.775      1.853      1.964      2.092      2.175
      2.229      2.301      2.387      2.458      2.513      2.560      2.591
      2.600      2.582      2.546      2.499      2.449      2.403      2.367
      2.341      2.322      2.307      2.294      2.282      2.270      2.256
      2.250      2.250      2.250      2.250      2.250      2.250      2.250
      2.250      2.250      2.250      2.250      2.250      2.250      2.250
      2.250      2.250      2.250      2.250      2.250      2.250      2.250
      2.250      2.250      2.250      2.250      2.250      2.250      2.250
      2.250      2.250      2.250      2.250      2.250      2.250      2.250
      2.250      2.250      2.250      2.250      2.250      2.250      2.250
      2.250      2.250      2.250      2.250      2.250
  7.000E-02  6.350E-02  5.740E-02  5.130E-02  4.510E-02  3.900E-02  3.280E-02
  2.680E-02  2.140E-02  1.700E-02  1.360E-02  1.120E-02  9.670E-03  8.760E-03
  8.270E-03  8.020E-03  7.900E-03  7.870E-03  7.890E-03  7.940E-03  8.000E-03
  8.030E-03  8.040E-03  8.030E-03  8.020E-03  8.010E-03  8.000E-03  8.000E-03
  8.000E-03  8.000E-03  8.000E-03  8.000E-03  8.000E-03  8.000E-03  8.000E-03
  8.000E-03  8.000E-03  8.000E-03  8.000E-03  8.000E-03  8.000E-03  8.000E-03
  8.000E-03  8.000E-03  8.000E-03  8.000E-03  8.000E-03  8.000E-03  8.000E-03
  8.000E-03  8.000E-03  8.000E-03  8.000E-03  8.000E-03  8.000E-03  8.000E-03
  8.000E-03  8.000E-03  8.000E-03  8.000E-03  8.000E-03  7.990E-03  7.990E-03
  7.990E-03  8.010E-03  8.020E-03  8.020E-03  7.980E-03  7.930E-03  7.910E-03
  7.990E-03  8.220E-03  8.560E-03  8.950E-03  9.330E-03  9.790E-03  1.050E-02
  1.140E-02  1.250E-02  1.360E-02  1.410E-02  1.330E-02  1.200E-02  1.090E-02
  9.930E-03  8.840E-03  7.630E-03  6.870E-03  6.730E-03  6.990E-03  7.440E-03
  7.850E-03  8.270E-03  8.850E-03  9.770E-03  1.090E-02  1.200E-02  1.290E-02
  1.410E-02  1.650E-02  2.030E-02  2.510E-02  3.160E-02  3.920E-02  4.680E-02
  5.400E-02  6.450E-02  8.500E-02  1.050E-01  1.520E-01  2.060E-01  2.460E-01
  2.820E-01  3.130E-01  3.240E-01  3.030E-01  2.710E-01  2.490E-01  2.130E-01
  1.730E-01  1.510E-01  1.480E-01  1.470E-01  1.450E-01  1.460E-01  1.700E-01
  1.900E-01  1.950E-01  2.080E-01  2.410E-01  2.920E-01  3.230E-01  3.330E-01
  3.250E-01  3.020E-01  2.890E-01  3.160E-01  3.600E-01  3.860E-01  3.960E-01
  4.010E-01  4.090E-01  4.200E-01  4.300E-01  4.400E-01  4.490E-01  4.610E-01
  4.750E-01  4.910E-01  5.100E-01  5.290E-01  5.530E-01  5.830E-01  6.270E-01
  6.500E-01  6.500E-01  6.500E-01  6.500E-01  6.500E-01  6.500E-01  6.500E-01
  6.500E-01  6.500E-01  6.500E-01  6.500E-01  6.500E-01  6.500E-01  6.500E-01
  6.500E-01  6.500E-01  6.500E-01  6.500E-01  6.500E-01  6.500E-01  6.500E-01
  6.500E-01  6.500E-01  6.500E-01  6.500E-01  6.500E-01  6.500E-01  6.500E-01
  6.500E-01  6.500E-01  6.500E-01  6.500E-01  6.500E-01  6.500E-01  6.500E-01
  6.500E-01  6.500E-01  6.500E-01  6.500E-01  6.500E-01  6.500E-01  6.500E-01
  6.500E-01  6.500E-01  6.500E-01  6.500E-01  6.500E-01
M8 (75%H2SO4)        
      1.498      1.496      1.494      1.492      1.490      1.488      1.485
      1.483      1.480      1.477      1.474      1.471      1.468      1.466
      1.463      1.459      1.456      1.452      1.447      1.444      1.440
      1.438      1.436      1.434      1.433      1.433      1.432      1.431
      1.431      1.430      1.430      1.430      1.429      1.429      1.429
      1.428      1.428      1.428      1.427      1.427      1.426      1.426
      1.425      1.425      1.424      1.423      1.423      1.422      1.420
      1.419      1.417      1.415      1.414      1.412      1.410      1.409
      1.408      1.407      1.405      1.403      1.400      1.397      1.394
      1.391      1.389      1.387      1.386      1.383      1.379      1.375
      1.370      1.365      1.358      1.346      1.328      1.309      1.296
      1.291      1.291      1.296      1.307      1.326      1.353      1.379
      1.392      1.396      1.398      1.398      1.395      1.390      1.386
      1.381      1.375      1.363      1.345      1.331      1.338      1.373
      1.413      1.429      1.407      1.359      1.305      1.250      1.197
      1.155      1.136      1.160      1.263      1.474      1.646      1.593
      1.727      1.921      1.815      1.708      1.664      1.842      1.917
      1.823      1.720      1.686      1.660      1.640      1.628      1.590
      1.528      1.498      1.561      1.726      1.919      1.930      1.878
      1.837      1.795      1.777      1.822      1.884      1.918      1.930
      1.930      1.926      1.922      1.920      1.920      1.920      1.918
      1.914      1.909      1.903      1.898      1.894      1.891      1.890
      1.890      1.890      1.890      1.890      1.890      1.890      1.890
      1.890      1.890      1.890      1.890      1.890      1.890      1.890
      1.890      1.890      1.890      1.890      1.890      1.890      1.890
      1.890      1.890      1.890      1.890      1.890      1.890      1.890
      1.890      1.890      1.890      1.890      1.890      1.890      1.890
      1.890      1.890      1.890      1.890      1.890      1.890      1.890
      1.890      1.890      1.890      1.890      1.890
  1.000E-08  1.000E-08  1.000E-08  1.000E-08  1.000E-08  1.000E-08  1.000E-08
  1.000E-08  1.000E-08  1.000E-08  1.000E-08  1.000E-08  1.000E-08  1.000E-08
  1.000E-08  1.000E-08  1.000E-08  1.000E-08  1.000E-08  1.000E-08  1.000E-08
  9.990E-09  9.980E-09  9.970E-09  9.970E-09  9.980E-09  1.000E-08  1.000E-08
  9.930E-09  9.930E-09  1.040E-08  1.130E-08  1.270E-08  1.420E-08  1.560E-08
  1.720E-08  1.980E-08  2.480E-08  3.340E-08  4.760E-08  7.050E-08  1.070E-07
  1.630E-07  2.450E-07  3.610E-07  5.220E-07  7.400E-07  1.020E-06  1.380E-06
  1.820E-06  2.370E-06  3.120E-06  4.220E-06  5.990E-06  9.130E-06  1.510E-05
  2.660E-05  4.760E-05  8.320E-05  1.360E-04  2.000E-04  2.740E-04  3.580E-04
  4.640E-04  6.160E-04  8.370E-04  1.100E-03  1.320E-03  1.450E-03  1.550E-03
  1.770E-03  2.270E-03  3.020E-03  3.710E-03  3.950E-03  4.790E-03  9.430E-03
  2.690E-02  7.210E-02  1.200E-01  1.330E-01  1.450E-01  1.590E-01  1.570E-01
  1.420E-01  1.300E-01  1.260E-01  1.260E-01  1.250E-01  1.240E-01  1.210E-01
  1.170E-01  1.150E-01  1.190E-01  1.340E-01  1.570E-01  1.840E-01  2.030E-01
  2.040E-01  1.800E-01  1.460E-01  1.250E-01  1.250E-01  1.440E-01  1.910E-01
  2.810E-01  4.190E-01  5.730E-01  7.030E-01  7.790E-01  6.670E-01  6.070E-01
  7.810E-01  5.320E-01  3.290E-01  3.460E-01  4.810E-01  4.160E-01  2.940E-01
  2.220E-01  1.940E-01  1.950E-01  1.950E-01  1.950E-01  1.990E-01  2.110E-01
  2.510E-01  3.360E-01  4.800E-01  5.910E-01  4.610E-01  3.090E-01  2.450E-01
  2.320E-01  2.510E-01  2.860E-01  3.140E-01  3.100E-01  2.720E-01  2.270E-01
  1.950E-01  1.820E-01  1.790E-01  1.800E-01  1.800E-01  1.800E-01  1.810E-01
  1.830E-01  1.850E-01  1.880E-01  1.910E-01  1.950E-01  2.020E-01  2.130E-01
  2.200E-01  2.200E-01  2.200E-01  2.200E-01  2.200E-01  2.200E-01  2.200E-01
  2.200E-01  2.200E-01  2.200E-01  2.200E-01  2.200E-01  2.200E-01  2.200E-01
  2.200E-01  2.200E-01  2.200E-01  2.200E-01  2.200E-01  2.200E-01  2.200E-01
  2.200E-01  2.200E-01  2.200E-01  2.200E-01  2.200E-01  2.200E-01  2.200E-01
  2.200E-01  2.200E-01  2.200E-01  2.200E-01  2.200E-01  2.200E-01  2.200E-01
  2.200E-01  2.200E-01  2.200E-01  2.200E-01  2.200E-01  2.200E-01  2.200E-01
  2.200E-01  2.200E-01  2.200E-01  2.200E-01  2.200E-01
M9 (Yellow sand)
      1.550      1.550      1.550      1.550      1.550      1.550      1.550
      1.550      1.550      1.550      1.550      1.550      1.550      1.550
      1.550      1.550      1.550      1.550      1.550      1.550      1.550
      1.550      1.550      1.550      1.550      1.550      1.550      1.550
      1.550      1.550      1.550      1.550      1.550      1.550      1.550
      1.550      1.550      1.550      1.550      1.550      1.550      1.550
      1.550      1.550      1.550      1.550      1.550      1.550      1.550
      1.550      1.550      1.550      1.550      1.550      1.550      1.550
      1.550      1.550      1.550      1.550      1.550      1.550      1.550
      1.550      1.550      1.550      1.550      1.550      1.550      1.550
      1.550      1.550      1.550      1.550      1.550      1.550      1.550
      1.550      1.550      1.550      1.550      1.550      1.550      1.550
      1.550      1.550      1.550      1.550      1.550      1.550      1.550
      1.550      1.550      1.550      1.550      1.550      1.550      1.550
      1.550      1.550      1.550      1.550      1.550      1.550      1.550
      1.550      1.550      1.550      1.550      1.550      1.550      1.550
      1.550      1.550      1.550      1.550      1.550      1.550      1.550
      1.550      1.550      1.550      1.550      1.550      1.550      1.550
      1.550      1.550      1.550      1.550      1.550      1.550      1.550
      1.550      1.550      1.550      1.550      1.550      1.550      1.550
      1.550      1.550      1.550      1.550      1.550      1.550      1.550
      1.550      1.550      1.550      1.550      1.550      1.550      1.550
      1.550      1.550      1.550      1.550      1.550      1.550      1.550
      1.550      1.550      1.550      1.550      1.550      1.550      1.550
      1.550      1.550      1.550      1.550      1.550      1.550      1.550
      1.550      1.550      1.550      1.550      1.550      1.550      1.550
      1.550      1.550      1.550      1.550      1.550      1.550      1.550
      1.550      1.550      1.550      1.550      1.550      1.550      1.550
      1.550      1.550      1.550      1.550      1.550
  0.259E-01  0.238E-01  0.219E-01  0.203E-01  0.188E-01  0.174E-01  0.162E-01
  0.150E-01  0.140E-01  0.131E-01  0.123E-01  0.115E-01  0.108E-01  0.102E-01
  0.957E-02  0.903E-02  0.853E-02  0.807E-02  0.765E-02  0.726E-02  0.690E-02
  0.656E-02  0.625E-02  0.597E-02  0.570E-02  0.545E-02  0.522E-02  0.500E-02
  0.479E-02  0.461E-02  0.443E-02  0.426E-02  0.411E-02  0.396E-02  0.382E-02
  0.369E-02  0.357E-02  0.345E-02  0.335E-02  0.324E-02  0.315E-02  0.305E-02
  0.297E-02  0.289E-02  0.281E-02  0.273E-02  0.266E-02  0.260E-02  0.253E-02
  0.247E-02  0.242E-02  0.236E-02  0.231E-02  0.226E-02  0.222E-02  0.217E-02
  0.213E-02  0.209E-02  0.205E-02  0.201E-02  0.197E-02  0.194E-02  0.191E-02
  0.188E-02  0.185E-02  0.182E-02  0.179E-02  0.176E-02  0.174E-02  0.171E-02
  0.169E-02  0.167E-02  0.164E-02  0.162E-02  0.160E-02  0.158E-02  0.157E-02
  0.155E-02  0.153E-02  0.151E-02  0.150E-02  0.148E-02  0.147E-02  0.145E-02
  0.144E-02  0.143E-02  0.141E-02  0.140E-02  0.139E-02  0.138E-02  0.136E-02
  0.135E-02  0.134E-02  0.133E-02  0.132E-02  0.131E-02  0.130E-02  0.130E-02
  0.129E-02  0.128E-02  0.127E-02  0.126E-02  0.126E-02  0.125E-02  0.124E-02
  0.123E-02  0.123E-02  0.122E-02  0.121E-02  0.121E-02  0.120E-02  0.120E-02
  0.119E-02  0.119E-02  0.118E-02  0.118E-02  0.117E-02  0.117E-02  0.116E-02
  0.116E-02  0.115E-02  0.115E-02  0.114E-02  0.114E-02  0.114E-02  0.113E-02
  0.113E-02  0.113E-02  0.112E-02  0.112E-02  0.112E-02  0.111E-02  0.111E-02
  0.111E-02  0.110E-02  0.110E-02  0.110E-02  0.110E-02  0.109E-02  0.109E-02
  0.109E-02  0.109E-02  0.108E-02  0.108E-02  0.108E-02  0.108E-02  0.107E-02
  0.107E-02  0.107E-02  0.107E-02  0.107E-02  0.107E-02  0.106E-02  0.106E-02
  0.106E-02  0.106E-02  0.106E-02  0.106E-02  0.105E-02  0.105E-02  0.105E-02
  0.105E-02  0.105E-02  0.105E-02  0.105E-02  0.104E-02  0.104E-02  0.104E-02
  0.104E-02  0.104E-02  0.104E-02  0.104E-02  0.104E-02  0.104E-02  0.104E-02
  0.103E-02  0.103E-02  0.103E-02  0.103E-02  0.103E-02  0.103E-02  0.103E-02
  0.103E-02  0.103E-02  0.103E-02  0.103E-02  0.103E-02  0.103E-02  0.102E-02
  0.102E-02  0.102E-02  0.102E-02  0.102E-02  0.102E-02  0.102E-02  0.102E-02
  0.102E-02  0.102E-02  0.102E-02  0.102E-02  0.102E-02
